Temperature (K)	Pressure (MPa)	Density (l, kg/m3)	Volume (l, m3/kg)	Internal Energy (l, kJ/kg)	Enthalpy (l, kJ/kg)	Entropy (l, J/g*K)	Cv (l, J/g*K)	Cp (l, J/g*K)	Sound Spd. (l, m/s)	Joule-Thomson (l, K/MPa)	Viscosity (l, Pa*s)	Therm. Cond. (l, W/m*K)	Surf. Tension (l, N/m)	Density (v, kg/m3)	Volume (v, m3/kg)	Internal Energy (v, kJ/kg)	Enthalpy (v, kJ/kg)	Entropy (v, J/g*K)	Cv (v, J/g*K)	Cp (v, J/g*K)	Sound Spd. (v, m/s)	Joule-Thomson (v, K/MPa)	Viscosity (v, Pa*s)	Therm. Cond. (v, W/m*K)
14.000	0.0075414	76.971	0.012992	-53.718	-53.620	-3.0506	5.1623	7.0310	1268.3	-1.5728	2.5531e-05	0.076669	0.0029925	0.13273	7.5343	343.39	400.21	29.366	6.2447	10.569	307.56	29.101	6.6684e-07	0.010426
14.100	0.0079820	76.889	0.013006	-53.015	-52.911	-3.0006	5.1654	7.0555	1266.2	-1.5656	2.5187e-05	0.077494	0.0029759	0.13958	7.1645	343.95	401.13	29.201	6.2484	10.582	308.53	28.823	6.7488e-07	0.010555
14.200	0.0084422	76.807	0.013020	-52.309	-52.199	-2.9507	5.1697	7.0819	1264.1	-1.5579	2.4851e-05	0.078303	0.0029592	0.14669	6.8173	344.50	402.05	29.039	6.2522	10.594	309.50	28.549	6.8281e-07	0.010681
14.300	0.0089225	76.725	0.013034	-51.601	-51.484	-2.9010	5.1751	7.1098	1262.0	-1.5500	2.4524e-05	0.079094	0.0029426	0.15405	6.4912	345.05	402.97	28.879	6.2559	10.607	310.45	28.279	6.9062e-07	0.010805
14.400	0.0094235	76.642	0.013048	-50.889	-50.766	-2.8514	5.1813	7.1392	1259.9	-1.5417	2.4206e-05	0.079870	0.0029260	0.16169	6.1846	345.60	403.88	28.721	6.2596	10.620	311.40	28.014	6.9832e-07	0.010926
14.500	0.0099458	76.559	0.013062	-50.175	-50.045	-2.8019	5.1883	7.1699	1257.7	-1.5331	2.3894e-05	0.080629	0.0029094	0.16960	5.8961	346.15	404.79	28.566	6.2633	10.633	312.35	27.753	7.0592e-07	0.011046
14.600	0.010490	76.476	0.013076	-49.458	-49.321	-2.7526	5.1960	7.2017	1255.6	-1.5244	2.3591e-05	0.081372	0.0028927	0.17779	5.6245	346.69	405.69	28.413	6.2670	10.647	313.29	27.496	7.1341e-07	0.011164
14.700	0.011057	76.392	0.013090	-48.737	-48.593	-2.7034	5.2042	7.2346	1253.5	-1.5154	2.3294e-05	0.082100	0.0028761	0.18627	5.3685	347.23	406.59	28.262	6.2706	10.660	314.22	27.244	7.2082e-07	0.011279
14.800	0.011647	76.308	0.013105	-48.014	-47.861	-2.6544	5.2128	7.2684	1251.3	-1.5062	2.3005e-05	0.082812	0.0028595	0.19504	5.1272	347.77	407.49	28.113	6.2742	10.674	315.14	26.996	7.2813e-07	0.011394
14.900	0.012260	76.224	0.013119	-47.287	-47.126	-2.6054	5.2218	7.3030	1249.2	-1.4969	2.2722e-05	0.083509	0.0028429	0.20410	4.8996	348.31	408.38	27.966	6.2777	10.688	316.06	26.753	7.3536e-07	0.011506
15.000	0.012898	76.139	0.013134	-46.556	-46.387	-2.5565	5.2311	7.3384	1247.1	-1.4875	2.2446e-05	0.084191	0.0028263	0.21347	4.6846	348.85	409.27	27.821	6.2812	10.703	316.97	26.514	7.4250e-07	0.011618
15.100	0.013561	76.053	0.013149	-45.822	-45.644	-2.5077	5.2406	7.3744	1244.9	-1.4780	2.2176e-05	0.084859	0.0028098	0.22314	4.4815	349.38	410.15	27.677	6.2847	10.717	317.87	26.279	7.4957e-07	0.011728
15.200	0.014249	75.968	0.013163	-45.085	-44.897	-2.4590	5.2502	7.4111	1242.8	-1.4684	2.1912e-05	0.085511	0.0027932	0.23313	4.2895	349.91	411.03	27.536	6.2881	10.732	318.77	26.049	7.5657e-07	0.011837
15.300	0.014964	75.882	0.013178	-44.343	-44.146	-2.4104	5.2600	7.4483	1240.6	-1.4588	2.1654e-05	0.086149	0.0027766	0.24344	4.1078	350.44	411.91	27.397	6.2914	10.747	319.66	25.823	7.6350e-07	0.011944
15.400	0.015706	75.795	0.013193	-43.599	-43.392	-2.3619	5.2698	7.4860	1238.5	-1.4491	2.1402e-05	0.086773	0.0027600	0.25407	3.9359	350.96	412.78	27.259	6.2948	10.762	320.54	25.602	7.7037e-07	0.012051
15.500	0.016475	75.708	0.013209	-42.850	-42.633	-2.3134	5.2797	7.5242	1236.3	-1.4393	2.1155e-05	0.087383	0.0027435	0.26504	3.7730	351.48	413.64	27.124	6.2980	10.778	321.42	25.384	7.7717e-07	0.012156
15.600	0.017272	75.620	0.013224	-42.098	-41.870	-2.2651	5.2895	7.5629	1234.1	-1.4295	2.0913e-05	0.087979	0.0027269	0.27635	3.6186	352.00	414.50	26.990	6.3013	10.794	322.29	25.171	7.8392e-07	0.012261
15.700	0.018098	75.533	0.013239	-41.342	-41.103	-2.2167	5.2994	7.6019	1232.0	-1.4197	2.0677e-05	0.088562	0.0027104	0.28800	3.4723	352.52	415.36	26.857	6.3045	10.810	323.15	24.962	7.9061e-07	0.012365
15.800	0.018953	75.444	0.013255	-40.582	-40.331	-2.1685	5.3092	7.6412	1229.8	-1.4098	2.0445e-05	0.089131	0.0026938	0.30000	3.3334	353.04	416.21	26.727	6.3076	10.826	324.01	24.757	7.9725e-07	0.012468
15.900	0.019838	75.355	0.013270	-39.819	-39.556	-2.1203	5.3189	7.6809	1227.6	-1.4000	2.0219e-05	0.089687	0.0026773	0.31235	3.2015	353.55	417.06	26.598	6.3107	10.843	324.86	24.556	8.0384e-07	0.012571
16.000	0.020755	75.266	0.013286	-39.051	-38.776	-2.0721	5.3285	7.7210	1225.5	-1.3901	1.9996e-05	0.090230	0.0026608	0.32507	3.0762	354.06	417.90	26.470	6.3138	10.860	325.71	24.358	8.1039e-07	0.012673
16.100	0.021702	75.176	0.013302	-38.280	-37.991	-2.0241	5.3381	7.7613	1223.3	-1.3802	1.9779e-05	0.090760	0.0026442	0.33816	2.9572	354.56	418.74	26.344	6.3168	10.877	326.54	24.164	8.1689e-07	0.012774
16.200	0.022682	75.086	0.013318	-37.505	-37.203	-1.9760	5.3476	7.8019	1221.1	-1.3703	1.9565e-05	0.091277	0.0026277	0.35163	2.8439	355.06	419.57	26.220	6.3198	10.895	327.38	23.974	8.2335e-07	0.012875
16.300	0.023695	74.995	0.013334	-36.726	-36.410	-1.9281	5.3569	7.8428	1218.9	-1.3604	1.9356e-05	0.091782	0.0026112	0.36547	2.7362	355.56	420.40	26.097	6.3227	10.913	328.20	23.788	8.2977e-07	0.012975
16.400	0.024741	74.904	0.013350	-35.942	-35.612	-1.8801	5.3662	7.8840	1216.7	-1.3505	1.9151e-05	0.092275	0.0025947	0.37970	2.6337	356.06	421.22	25.975	6.3256	10.931	329.02	23.605	8.3616e-07	0.013075
16.500	0.025821	74.813	0.013367	-35.155	-34.810	-1.8323	5.3753	7.9255	1214.5	-1.3407	1.8950e-05	0.092756	0.0025782	0.39432	2.5360	356.55	422.03	25.855	6.3285	10.949	329.84	23.425	8.4251e-07	0.013175
16.600	0.026936	74.721	0.013383	-34.364	-34.004	-1.7844	5.3843	7.9672	1212.3	-1.3308	1.8753e-05	0.093225	0.0025617	0.40935	2.4429	357.04	422.85	25.737	6.3314	10.968	330.64	23.249	8.4884e-07	0.013274
16.700	0.028087	74.628	0.013400	-33.569	-33.193	-1.7367	5.3932	8.0091	1210.1	-1.3209	1.8560e-05	0.093682	0.0025452	0.42478	2.3542	357.53	423.65	25.619	6.3342	10.987	331.44	23.076	8.5513e-07	0.013374
16.800	0.029274	74.535	0.013417	-32.770	-32.377	-1.6889	5.4019	8.0514	1207.8	-1.3110	1.8370e-05	0.094128	0.0025287	0.44062	2.2695	358.01	424.45	25.503	6.3370	11.007	332.24	22.906	8.6140e-07	0.013472
16.900	0.030498	74.441	0.013433	-31.967	-31.557	-1.6412	5.4106	8.0938	1205.6	-1.3012	1.8183e-05	0.094562	0.0025123	0.45689	2.1887	358.49	425.24	25.388	6.3398	11.027	333.03	22.739	8.6763e-07	0.013571
17.000	0.031759	74.347	0.013450	-31.159	-30.732	-1.5936	5.4191	8.1366	1203.3	-1.2913	1.8001e-05	0.094986	0.0024958	0.47357	2.1116	358.97	426.03	25.275	6.3425	11.047	333.81	22.575	8.7385e-07	0.013670
17.100	0.033059	74.252	0.013468	-30.348	-29.903	-1.5459	5.4275	8.1796	1201.1	-1.2814	1.7821e-05	0.095398	0.0024793	0.49069	2.0379	359.44	426.81	25.163	6.3453	11.068	334.58	22.414	8.8005e-07	0.013768
17.200	0.034398	74.157	0.013485	-29.532	-29.069	-1.4984	5.4358	8.2228	1198.8	-1.2716	1.7645e-05	0.095800	0.0024629	0.50825	1.9675	359.91	427.59	25.052	6.3480	11.089	335.35	22.255	8.8622e-07	0.013867
17.300	0.035777	74.062	0.013502	-28.713	-28.230	-1.4508	5.4440	8.2664	1196.5	-1.2617	1.7472e-05	0.096191	0.0024464	0.52625	1.9002	360.38	428.36	24.942	6.3507	11.110	336.11	22.100	8.9238e-07	0.013965
17.400	0.037196	73.965	0.013520	-27.889	-27.386	-1.4033	5.4520	8.3102	1194.2	-1.2518	1.7301e-05	0.096571	0.0024300	0.54471	1.8358	360.84	429.13	24.833	6.3535	11.132	336.87	21.947	8.9851e-07	0.014063
17.500	0.038656	73.869	0.013538	-27.061	-26.538	-1.3558	5.4600	8.3542	1191.9	-1.2420	1.7134e-05	0.096941	0.0024136	0.56362	1.7742	361.30	429.88	24.725	6.3562	11.155	337.62	21.796	9.0464e-07	0.014162
17.600	0.040159	73.771	0.013555	-26.229	-25.685	-1.3083	5.4679	8.3986	1189.6	-1.2321	1.6970e-05	0.097301	0.0023971	0.58300	1.7153	361.75	430.64	24.619	6.3589	11.178	338.37	21.648	9.1075e-07	0.014260
17.700	0.041704	73.674	0.013573	-25.393	-24.826	-1.2609	5.4756	8.4432	1187.3	-1.2222	1.6809e-05	0.097651	0.0023807	0.60285	1.6588	362.20	431.38	24.514	6.3617	11.201	339.10	21.503	9.1684e-07	0.014359
17.800	0.043292	73.575	0.013592	-24.552	-23.964	-1.2135	5.4833	8.4882	1184.9	-1.2124	1.6650e-05	0.097992	0.0023643	0.62317	1.6047	362.65	432.12	24.409	6.3644	11.225	339.83	21.359	9.2293e-07	0.014457
17.900	0.044925	73.476	0.013610	-23.707	-23.096	-1.1661	5.4909	8.5335	1182.5	-1.2025	1.6494e-05	0.098322	0.0023479	0.64398	1.5528	363.09	432.86	24.306	6.3672	11.249	340.56	21.218	9.2900e-07	0.014556
18.000	0.046602	73.377	0.013628	-22.858	-22.223	-1.1188	5.4984	8.5790	1180.2	-1.1926	1.6340e-05	0.098643	0.0023315	0.66529	1.5031	363.53	433.58	24.204	6.3700	11.274	341.28	21.079	9.3507e-07	0.014655
18.100	0.048325	73.277	0.013647	-22.005	-21.345	-1.0715	5.5059	8.6249	1177.8	-1.1828	1.6189e-05	0.098955	0.0023151	0.68709	1.4554	363.97	434.30	24.102	6.3728	11.299	341.99	20.942	9.4113e-07	0.014754
18.200	0.050095	73.176	0.013666	-21.147	-20.462	-1.0242	5.5132	8.6711	1175.4	-1.1729	1.6041e-05	0.099258	0.0022987	0.70940	1.4096	364.40	435.02	24.002	6.3756	11.324	342.70	20.807	9.4718e-07	0.014853
18.300	0.051911	73.075	0.013685	-20.285	-19.574	-0.97686	5.5205	8.7177	1172.9	-1.1630	1.5895e-05	0.099552	0.0022823	0.73223	1.3657	364.83	435.72	23.903	6.3784	11.351	343.40	20.675	9.5323e-07	0.014953
18.400	0.053775	72.974	0.013704	-19.418	-18.681	-0.92959	5.5277	8.7645	1170.5	-1.1530	1.5751e-05	0.099836	0.0022660	0.75557	1.3235	365.25	436.42	23.804	6.3813	11.378	344.09	20.544	9.5927e-07	0.015052
18.500	0.055688	72.871	0.013723	-18.547	-17.783	-0.88233	5.5349	8.8118	1168.1	-1.1431	1.5610e-05	0.10011	0.0022496	0.77944	1.2830	365.67	437.12	23.707	6.3842	11.405	344.78	20.415	9.6531e-07	0.015152
18.600	0.057650	72.769	0.013742	-17.672	-16.880	-0.83509	5.5420	8.8594	1165.6	-1.1332	1.5470e-05	0.10038	0.0022333	0.80384	1.2440	366.08	437.80	23.610	6.3872	11.433	345.46	20.287	9.7134e-07	0.015253
18.700	0.059662	72.665	0.013762	-16.793	-15.972	-0.78786	5.5490	8.9074	1163.1	-1.1232	1.5333e-05	0.10064	0.0022169	0.82879	1.2066	366.49	438.48	23.514	6.3902	11.461	346.13	20.162	9.7738e-07	0.015353
18.800	0.061725	72.561	0.013781	-15.908	-15.058	-0.74064	5.5560	8.9557	1160.6	-1.1133	1.5198e-05	0.10089	0.0022006	0.85429	1.1706	366.90	439.15	23.419	6.3932	11.491	346.80	20.038	9.8341e-07	0.015454
18.900	0.063840	72.457	0.013801	-15.020	-14.139	-0.69343	5.5629	9.0045	1158.1	-1.1033	1.5065e-05	0.10113	0.0021842	0.88034	1.1359	367.30	439.82	23.325	6.3963	11.520	347.46	19.916	9.8945e-07	0.015555
19.000	0.066006	72.352	0.013821	-14.127	-13.214	-0.64623	5.5698	9.0536	1155.5	-1.0933	1.4934e-05	0.10137	0.0021679	0.90696	1.1026	367.70	440.47	23.232	6.3994	11.551	348.11	19.795	9.9548e-07	0.015656
19.100	0.068226	72.246	0.013842	-13.229	-12.285	-0.59904	5.5767	9.1032	1153.0	-1.0832	1.4805e-05	0.10159	0.0021516	0.93415	1.0705	368.09	441.12	23.140	6.4026	11.582	348.76	19.676	1.0015e-06	0.015758
19.200	0.070500	72.140	0.013862	-12.327	-11.349	-0.55185	5.5835	9.1532	1150.4	-1.0732	1.4678e-05	0.10181	0.0021353	0.96192	1.0396	368.48	441.77	23.048	6.4058	11.613	349.40	19.558	1.0076e-06	0.015860
19.300	0.072828	72.033	0.013883	-11.420	-10.409	-0.50466	5.5902	9.2036	1147.8	-1.0631	1.4553e-05	0.10202	0.0021190	0.99027	1.0098	368.86	442.40	22.957	6.4091	11.645	350.04	19.442	1.0136e-06	0.015963
19.400	0.075211	71.925	0.013903	-10.508	-9.4625	-0.45747	5.5970	9.2544	1145.2	-1.0530	1.4430e-05	0.10222	0.0021027	1.0192	0.98114	369.24	443.03	22.867	6.4125	11.678	350.67	19.327	1.0197e-06	0.016066
19.500	0.077651	71.817	0.013924	-9.5920	-8.5108	-0.41028	5.6037	9.3057	1142.6	-1.0429	1.4308e-05	0.10242	0.0020864	1.0488	0.95349	369.61	443.65	22.777	6.4159	11.712	351.29	19.214	1.0257e-06	0.016169
19.600	0.080148	71.708	0.013945	-8.6711	-7.5535	-0.36310	5.6103	9.3575	1139.9	-1.0327	1.4188e-05	0.10261	0.0020701	1.0789	0.92683	369.98	444.26	22.689	6.4194	11.746	351.90	19.102	1.0318e-06	0.016273
19.700	0.082702	71.599	0.013967	-7.7455	-6.5905	-0.31590	5.6170	9.4097	1137.2	-1.0225	1.4070e-05	0.10279	0.0020538	1.1097	0.90112	370.34	444.86	22.601	6.4230	11.782	352.51	18.991	1.0378e-06	0.016377
19.800	0.085314	71.489	0.013988	-6.8152	-5.6218	-0.26870	5.6236	9.4625	1134.5	-1.0123	1.3953e-05	0.10296	0.0020376	1.1411	0.87631	370.70	445.46	22.513	6.4266	11.817	353.12	18.881	1.0439e-06	0.016481
19.900	0.087986	71.378	0.014010	-5.8800	-4.6474	-0.22150	5.6302	9.5157	1131.8	-1.0021	1.3838e-05	0.10313	0.0020213	1.1732	0.85237	371.05	446.05	22.427	6.4303	11.854	353.71	18.773	1.0500e-06	0.016586
20.000	0.090717	71.267	0.014032	-4.9400	-3.6671	-0.17428	5.6367	9.5694	1129.1	-0.99177	1.3725e-05	0.10329	0.0020051	1.2059	0.82926	371.40	446.63	22.341	6.4341	11.891	354.30	18.665	1.0561e-06	0.016692
20.100	0.093510	71.155	0.014054	-3.9952	-2.6810	-0.12706	5.6433	9.6236	1126.4	-0.98145	1.3613e-05	0.10345	0.0019888	1.2392	0.80695	371.74	447.20	22.255	6.4380	11.930	354.88	18.559	1.0622e-06	0.016798
20.200	0.096363	71.042	0.014076	-3.0455	-1.6890	-0.079820	5.6498	9.6784	1123.6	-0.97110	1.3503e-05	0.10359	0.0019726	1.2732	0.78540	372.08	447.76	22.170	6.4419	11.968	355.46	18.454	1.0683e-06	0.016904
20.300	0.099279	70.929	0.014099	-2.0908	-0.69111	-0.032568	5.6563	9.7337	1120.8	-0.96070	1.3394e-05	0.10373	0.0019564	1.3079	0.76457	372.41	448.32	22.086	6.4459	12.008	356.03	18.350	1.0744e-06	0.017011
20.400	0.10226	70.815	0.014121	-1.1312	0.31284	0.014701	5.6628	9.7896	1118.0	-0.95026	1.3287e-05	0.10387	0.0019401	1.3433	0.74445	372.74	448.87	22.003	6.4501	12.049	356.59	18.247	1.0805e-06	0.017119
20.500	0.10530	70.700	0.014144	-0.16655	1.3228	0.061987	5.6692	9.8461	1115.2	-0.93978	1.3180e-05	0.10399	0.0019239	1.3793	0.72499	373.06	449.41	21.920	6.4543	12.090	357.15	18.146	1.0867e-06	0.017227
20.600	0.10841	70.585	0.014167	0.80312	2.3390	0.10929	5.6757	9.9031	1112.3	-0.92926	1.3076e-05	0.10411	0.0019077	1.4161	0.70618	373.38	449.94	21.837	6.4586	12.133	357.70	18.045	1.0928e-06	0.017335
20.700	0.11158	70.469	0.014191	1.7779	3.3613	0.15662	5.6821	9.9607	1109.5	-0.91869	1.2972e-05	0.10423	0.0018915	1.4535	0.68799	373.69	450.46	21.755	6.4629	12.176	358.24	17.945	1.0990e-06	0.017444
20.800	0.11482	70.352	0.014214	2.7577	4.3898	0.20397	5.6886	10.019	1106.6	-0.90808	1.2870e-05	0.10434	0.0018754	1.4917	0.67039	374.00	450.97	21.674	6.4674	12.220	358.78	17.846	1.1052e-06	0.017554
20.900	0.11813	70.235	0.014238	3.7428	5.4246	0.25135	5.6950	10.078	1103.7	-0.89742	1.2770e-05	0.10444	0.0018592	1.5306	0.65335	374.30	451.47	21.593	6.4720	12.265	359.31	17.748	1.1114e-06	0.017664
21.000	0.12150	70.117	0.014262	4.7330	6.4658	0.29875	5.7014	10.137	1100.7	-0.88670	1.2670e-05	0.10454	0.0018430	1.5702	0.63686	374.59	451.97	21.513	6.4766	12.311	359.83	17.650	1.1176e-06	0.017775
21.100	0.12494	69.998	0.014286	5.7284	7.5134	0.34618	5.7077	10.197	1097.8	-0.87593	1.2572e-05	0.10463	0.0018269	1.6106	0.62090	374.88	452.46	21.434	6.4814	12.358	360.35	17.554	1.1238e-06	0.017886
21.200	0.12845	69.879	0.014311	6.7292	8.5674	0.39365	5.7141	10.258	1094.8	-0.86511	1.2475e-05	0.10471	0.0018107	1.6517	0.60544	375.16	452.93	21.354	6.4863	12.406	360.86	17.459	1.1300e-06	0.017998
21.300	0.13203	69.758	0.014335	7.7353	9.6280	0.44114	5.7205	10.320	1091.8	-0.85424	1.2379e-05	0.10479	0.0017946	1.6936	0.59047	375.44	453.40	21.276	6.4912	12.455	361.36	17.364	1.1363e-06	0.018111
21.400	0.13568	69.637	0.014360	8.7467	10.695	0.48867	5.7268	10.382	1088.8	-0.84330	1.2284e-05	0.10486	0.0017785	1.7362	0.57596	375.71	453.86	21.197	6.4963	12.505	361.86	17.270	1.1426e-06	0.018224
21.500	0.13941	69.516	0.014385	9.7636	11.769	0.53624	5.7332	10.445	1085.8	-0.83231	1.2190e-05	0.10493	0.0017623	1.7797	0.56190	375.98	454.31	21.120	6.5015	12.557	362.35	17.177	1.1489e-06	0.018338
21.600	0.14320	69.393	0.014411	10.786	12.850	0.58384	5.7395	10.509	1082.7	-0.82125	1.2097e-05	0.10500	0.0017462	1.8239	0.54826	376.24	454.75	21.042	6.5068	12.609	362.83	17.085	1.1552e-06	0.018452
21.700	0.14707	69.270	0.014436	11.814	13.937	0.63149	5.7458	10.573	1079.6	-0.81013	1.2006e-05	0.10505	0.0017301	1.8690	0.53505	376.49	455.18	20.965	6.5122	12.662	363.30	16.993	1.1615e-06	0.018567
21.800	0.15101	69.146	0.014462	12.847	15.031	0.67918	5.7521	10.638	1076.5	-0.79894	1.1915e-05	0.10510	0.0017140	1.9149	0.52223	376.74	455.60	20.889	6.5176	12.717	363.77	16.902	1.1678e-06	0.018683
21.900	0.15503	69.021	0.014488	13.886	16.132	0.72691	5.7585	10.704	1073.4	-0.78769	1.1826e-05	0.10515	0.0016979	1.9616	0.50980	376.98	456.01	20.813	6.5233	12.773	364.24	16.812	1.1742e-06	0.018800
22.000	0.15913	68.895	0.014515	14.931	17.240	0.77469	5.7648	10.771	1070.2	-0.77637	1.1737e-05	0.10519	0.0016819	2.0091	0.49773	377.21	456.41	20.737	6.5290	12.829	364.69	16.723	1.1806e-06	0.018917
22.100	0.16329	68.769	0.014541	15.981	18.356	0.82252	5.7711	10.839	1067.1	-0.76497	1.1650e-05	0.10523	0.0016658	2.0575	0.48603	377.44	456.81	20.662	6.5348	12.888	365.14	16.634	1.1870e-06	0.019035
22.200	0.16754	68.642	0.014568	17.037	19.478	0.87040	5.7773	10.907	1063.9	-0.75350	1.1563e-05	0.10526	0.0016497	2.1068	0.47466	377.66	457.19	20.587	6.5407	12.947	365.58	16.546	1.1934e-06	0.019153
22.300	0.17187	68.514	0.014596	18.099	20.608	0.91834	5.7836	10.977	1060.7	-0.74195	1.1478e-05	0.10528	0.0016337	2.1569	0.46363	377.88	457.56	20.513	6.5468	13.008	366.02	16.459	1.1998e-06	0.019273
22.400	0.17627	68.385	0.014623	19.167	21.744	0.96633	5.7899	11.047	1057.4	-0.73032	1.1393e-05	0.10531	0.0016176	2.2079	0.45291	378.09	457.92	20.438	6.5530	13.070	366.45	16.372	1.2063e-06	0.019393
22.500	0.18075	68.255	0.014651	20.240	22.889	1.0144	5.7962	11.118	1054.1	-0.71861	1.1309e-05	0.10532	0.0016016	2.2598	0.44251	378.29	458.27	20.365	6.5593	13.133	366.87	16.286	1.2128e-06	0.019513
22.600	0.18531	68.125	0.014679	21.320	24.040	1.0625	5.8024	11.191	1050.9	-0.70681	1.1226e-05	0.10533	0.0015856	2.3127	0.43240	378.48	458.61	20.291	6.5657	13.198	367.28	16.200	1.2193e-06	0.019635
22.700	0.18996	67.993	0.014707	22.406	25.200	1.1106	5.8087	11.264	1047.5	-0.69493	1.1144e-05	0.10534	0.0015696	2.3665	0.42257	378.67	458.94	20.218	6.5722	13.264	367.69	16.115	1.2258e-06	0.019757
22.800	0.19468	67.861	0.014736	23.498	26.366	1.1589	5.8149	11.338	1044.2	-0.68296	1.1063e-05	0.10534	0.0015536	2.4212	0.41302	378.85	459.26	20.146	6.5788	13.331	368.09	16.031	1.2323e-06	0.019881
22.900	0.19949	67.728	0.014765	24.596	27.541	1.2072	5.8212	11.413	1040.8	-0.67089	1.0982e-05	0.10534	0.0015376	2.4768	0.40374	379.03	459.57	20.073	6.5856	13.401	368.49	15.947	1.2389e-06	0.020005
23.000	0.20438	67.594	0.014794	25.700	28.723	1.2555	5.8274	11.489	1037.5	-0.65873	1.0903e-05	0.10533	0.0015216	2.5335	0.39472	379.20	459.87	20.001	6.5925	13.471	368.87	15.864	1.2455e-06	0.020130
23.100	0.20936	67.459	0.014824	26.810	29.914	1.3040	5.8337	11.567	1034.0	-0.64647	1.0824e-05	0.10532	0.0015057	2.5911	0.38594	379.36	460.16	19.929	6.5995	13.544	369.26	15.781	1.2521e-06	0.020255
23.200	0.21442	67.323	0.014854	27.927	31.112	1.3525	5.8399	11.645	1030.6	-0.63411	1.0746e-05	0.10530	0.0014897	2.6497	0.37740	379.51	460.43	19.858	6.6066	13.617	369.63	15.699	1.2588e-06	0.020382
23.300	0.21957	67.186	0.014884	29.050	32.318	1.4011	5.8461	11.725	1027.2	-0.62164	1.0669e-05	0.10528	0.0014737	2.7093	0.36910	379.65	460.70	19.786	6.6139	13.693	370.00	15.618	1.2655e-06	0.020509
23.400	0.22480	67.048	0.014915	30.180	33.533	1.4498	5.8523	11.806	1023.7	-0.60907	1.0592e-05	0.10525	0.0014578	2.7699	0.36102	379.79	460.95	19.716	6.6213	13.770	370.36	15.537	1.2722e-06	0.020638
23.500	0.23013	66.910	0.014946	31.316	34.755	1.4985	5.8586	11.888	1020.2	-0.59639	1.0516e-05	0.10522	0.0014419	2.8316	0.35315	379.92	461.19	19.645	6.6288	13.849	370.71	15.456	1.2789e-06	0.020767
23.600	0.23553	66.770	0.014977	32.459	35.986	1.5474	5.8648	11.971	1016.6	-0.58359	1.0441e-05	0.10518	0.0014260	2.8944	0.34550	380.05	461.42	19.574	6.6364	13.930	371.06	15.376	1.2857e-06	0.020897
23.700	0.24103	66.629	0.015008	33.608	37.226	1.5963	5.8710	12.056	1013.1	-0.57067	1.0367e-05	0.10515	0.0014101	2.9582	0.33804	380.16	461.64	19.504	6.6442	14.013	371.40	15.296	1.2924e-06	0.021029
