Temperature (K)	Pressure (MPa)	Density (l, kg/m3)	Volume (l, m3/kg)	Internal Energy (l, kJ/kg)	Enthalpy (l, kJ/kg)	Entropy (l, J/g*K)	Cv (l, J/g*K)	Cp (l, J/g*K)	Sound Spd. (l, m/s)	Joule-Thomson (l, K/MPa)	Viscosity (l, Pa*s)	Therm. Cond. (l, W/m*K)	Surf. Tension (l, N/m)	Density (v, kg/m3)	Volume (v, m3/kg)	Internal Energy (v, kJ/kg)	Enthalpy (v, kJ/kg)	Entropy (v, J/g*K)	Cv (v, J/g*K)	Cp (v, J/g*K)	Sound Spd. (v, m/s)	Joule-Thomson (v, K/MPa)	Viscosity (v, Pa*s)	Therm. Cond. (v, W/m*K)
64.000	0.014602	863.73	0.0011578	-149.05	-149.03	2.4524	1.1703	2.0016	986.57	-0.40156	0.00029492	0.17545	0.012032	0.77689	1.2872	46.794	65.589	5.8059	0.75071	1.0605	162.08	39.558	4.4346e-06	0.0062456
64.102	0.014869	863.31	0.0011583	-148.85	-148.83	2.4555	1.1696	2.0018	985.53	-0.40124	0.00029336	0.17522	0.012007	0.78996	1.2659	46.863	65.686	5.8021	0.75081	1.0608	162.19	39.423	4.4421e-06	0.0062550
64.203	0.015140	862.89	0.0011589	-148.64	-148.63	2.4587	1.1689	2.0020	984.49	-0.40092	0.00029182	0.17498	0.011982	0.80320	1.2450	46.933	65.783	5.7983	0.75092	1.0611	162.31	39.289	4.4496e-06	0.0062643
64.305	0.015415	862.47	0.0011595	-148.44	-148.42	2.4619	1.1682	2.0021	983.45	-0.40059	0.00029029	0.17475	0.011958	0.81661	1.2246	47.002	65.879	5.7945	0.75102	1.0614	162.42	39.156	4.4571e-06	0.0062736
64.407	0.015694	862.05	0.0011600	-148.24	-148.22	2.4650	1.1675	2.0023	982.41	-0.40027	0.00028877	0.17451	0.011933	0.83020	1.2045	47.071	65.975	5.7907	0.75112	1.0616	162.54	39.024	4.4646e-06	0.0062830
64.508	0.015977	861.63	0.0011606	-148.03	-148.02	2.4682	1.1668	2.0025	981.37	-0.39994	0.00028726	0.17428	0.011908	0.84397	1.1849	47.141	66.072	5.7870	0.75123	1.0619	162.65	38.892	4.4721e-06	0.0062923
64.610	0.016264	861.21	0.0011612	-147.83	-147.81	2.4714	1.1661	2.0027	980.34	-0.39961	0.00028576	0.17404	0.011884	0.85791	1.1656	47.210	66.168	5.7832	0.75133	1.0622	162.77	38.762	4.4796e-06	0.0063016
64.712	0.016556	860.79	0.0011617	-147.63	-147.61	2.4745	1.1654	2.0029	979.30	-0.39928	0.00028427	0.17381	0.011859	0.87203	1.1467	47.279	66.264	5.7795	0.75144	1.0625	162.88	38.632	4.4871e-06	0.0063110
64.813	0.016851	860.37	0.0011623	-147.42	-147.40	2.4776	1.1647	2.0030	978.26	-0.39894	0.00028279	0.17358	0.011834	0.88634	1.1282	47.348	66.360	5.7758	0.75154	1.0628	162.99	38.503	4.4946e-06	0.0063203
64.915	0.017151	859.95	0.0011629	-147.22	-147.20	2.4808	1.1640	2.0032	977.22	-0.39861	0.00028133	0.17334	0.011810	0.90083	1.1101	47.417	66.456	5.7721	0.75165	1.0631	163.11	38.374	4.5021e-06	0.0063296
65.017	0.017455	859.53	0.0011634	-147.02	-147.00	2.4839	1.1633	2.0034	976.19	-0.39827	0.00027987	0.17311	0.011785	0.91550	1.0923	47.486	66.551	5.7684	0.75176	1.0634	163.22	38.247	4.5096e-06	0.0063389
65.118	0.017763	859.11	0.0011640	-146.81	-146.79	2.4870	1.1626	2.0036	975.15	-0.39793	0.00027843	0.17288	0.011760	0.93036	1.0749	47.555	66.647	5.7648	0.75187	1.0637	163.33	38.120	4.5171e-06	0.0063483
65.220	0.018075	858.68	0.0011646	-146.61	-146.59	2.4902	1.1619	2.0038	974.12	-0.39759	0.00027699	0.17264	0.011736	0.94540	1.0577	47.623	66.742	5.7611	0.75198	1.0640	163.44	37.994	4.5246e-06	0.0063576
65.322	0.018392	858.26	0.0011651	-146.41	-146.38	2.4933	1.1612	2.0040	973.08	-0.39725	0.00027557	0.17241	0.011711	0.96064	1.0410	47.692	66.838	5.7575	0.75209	1.0643	163.56	37.869	4.5321e-06	0.0063669
65.423	0.018714	857.84	0.0011657	-146.20	-146.18	2.4964	1.1605	2.0042	972.05	-0.39691	0.00027416	0.17218	0.011686	0.97607	1.0245	47.761	66.933	5.7539	0.75220	1.0646	163.67	37.744	4.5396e-06	0.0063762
65.525	0.019039	857.42	0.0011663	-146.00	-145.98	2.4995	1.1598	2.0043	971.01	-0.39656	0.00027275	0.17194	0.011662	0.99168	1.0084	47.829	67.028	5.7503	0.75231	1.0649	163.78	37.621	4.5471e-06	0.0063855
65.627	0.019370	856.99	0.0011669	-145.80	-145.77	2.5026	1.1591	2.0045	969.98	-0.39622	0.00027136	0.17171	0.011637	1.0075	0.99256	47.898	67.123	5.7467	0.75242	1.0653	163.89	37.498	4.5546e-06	0.0063948
65.728	0.019705	856.57	0.0011674	-145.59	-145.57	2.5057	1.1584	2.0047	968.94	-0.39587	0.00026998	0.17148	0.011613	1.0235	0.97703	47.966	67.218	5.7431	0.75254	1.0656	164.00	37.375	4.5621e-06	0.0064042
65.830	0.020044	856.15	0.0011680	-145.39	-145.36	2.5088	1.1577	2.0049	967.91	-0.39552	0.00026860	0.17125	0.011588	1.0397	0.96180	48.034	67.313	5.7395	0.75265	1.0659	164.11	37.254	4.5697e-06	0.0064135
65.932	0.020389	855.72	0.0011686	-145.18	-145.16	2.5119	1.1570	2.0051	966.88	-0.39516	0.00026724	0.17101	0.011563	1.0561	0.94686	48.103	67.408	5.7360	0.75277	1.0662	164.22	37.133	4.5772e-06	0.0064228
66.033	0.020738	855.30	0.0011692	-144.98	-144.96	2.5150	1.1563	2.0053	965.85	-0.39481	0.00026589	0.17078	0.011539	1.0727	0.93220	48.171	67.503	5.7324	0.75288	1.0665	164.33	37.013	4.5847e-06	0.0064321
66.135	0.021091	854.87	0.0011698	-144.78	-144.75	2.5181	1.1556	2.0055	964.81	-0.39446	0.00026454	0.17055	0.011514	1.0895	0.91782	48.239	67.597	5.7289	0.75300	1.0669	164.44	36.894	4.5922e-06	0.0064414
66.237	0.021450	854.45	0.0011703	-144.57	-144.55	2.5212	1.1549	2.0057	963.78	-0.39410	0.00026321	0.17032	0.011490	1.1066	0.90371	48.307	67.691	5.7254	0.75312	1.0672	164.55	36.775	4.5997e-06	0.0064507
66.338	0.021813	854.02	0.0011709	-144.37	-144.34	2.5242	1.1542	2.0059	962.75	-0.39374	0.00026188	0.17009	0.011465	1.1238	0.88986	48.375	67.786	5.7219	0.75323	1.0675	164.66	36.657	4.6073e-06	0.0064600
66.440	0.022182	853.60	0.0011715	-144.17	-144.14	2.5273	1.1535	2.0061	961.72	-0.39338	0.00026057	0.16986	0.011441	1.1412	0.87627	48.443	67.880	5.7184	0.75335	1.0679	164.77	36.540	4.6148e-06	0.0064693
66.542	0.022555	853.17	0.0011721	-143.96	-143.93	2.5304	1.1528	2.0063	960.69	-0.39301	0.00025926	0.16962	0.011416	1.1588	0.86293	48.511	67.974	5.7150	0.75347	1.0682	164.88	36.423	4.6223e-06	0.0064787
66.643	0.022933	852.74	0.0011727	-143.76	-143.73	2.5334	1.1521	2.0065	959.66	-0.39265	0.00025797	0.16939	0.011392	1.1767	0.84984	48.578	68.068	5.7115	0.75359	1.0686	164.99	36.308	4.6298e-06	0.0064880
66.745	0.023316	852.32	0.0011733	-143.55	-143.53	2.5365	1.1514	2.0068	958.63	-0.39228	0.00025668	0.16916	0.011367	1.1947	0.83700	48.646	68.162	5.7081	0.75372	1.0689	165.10	36.192	4.6373e-06	0.0064973
66.847	0.023705	851.89	0.0011739	-143.35	-143.32	2.5395	1.1507	2.0070	957.60	-0.39191	0.00025540	0.16893	0.011343	1.2130	0.82439	48.714	68.255	5.7047	0.75384	1.0693	165.21	36.078	4.6449e-06	0.0065066
66.948	0.024098	851.47	0.0011744	-143.15	-143.12	2.5426	1.1501	2.0072	956.57	-0.39154	0.00025413	0.16870	0.011318	1.2315	0.81201	48.781	68.349	5.7012	0.75396	1.0696	165.31	35.964	4.6524e-06	0.0065159
67.050	0.024497	851.04	0.0011750	-142.94	-142.91	2.5456	1.1494	2.0074	955.54	-0.39117	0.00025287	0.16847	0.011294	1.2502	0.79985	48.849	68.442	5.6978	0.75408	1.0700	165.42	35.851	4.6599e-06	0.0065252
67.152	0.024901	850.61	0.0011756	-142.74	-142.71	2.5487	1.1487	2.0076	954.51	-0.39079	0.00025162	0.16824	0.011269	1.2692	0.78792	48.916	68.536	5.6945	0.75421	1.0703	165.53	35.739	4.6675e-06	0.0065346
67.253	0.025310	850.18	0.0011762	-142.53	-142.50	2.5517	1.1480	2.0078	953.48	-0.39042	0.00025038	0.16801	0.011245	1.2883	0.77621	48.983	68.629	5.6911	0.75434	1.0707	165.64	35.627	4.6750e-06	0.0065439
67.355	0.025724	849.75	0.0011768	-142.33	-142.30	2.5547	1.1473	2.0081	952.45	-0.39004	0.00024914	0.16778	0.011221	1.3077	0.76471	49.050	68.722	5.6877	0.75446	1.0710	165.74	35.516	4.6825e-06	0.0065532
67.457	0.026144	849.33	0.0011774	-142.13	-142.10	2.5578	1.1466	2.0083	951.42	-0.38966	0.00024792	0.16755	0.011196	1.3273	0.75342	49.117	68.815	5.6844	0.75459	1.0714	165.85	35.405	4.6901e-06	0.0065625
67.558	0.026569	848.90	0.0011780	-141.92	-141.89	2.5608	1.1459	2.0085	950.39	-0.38928	0.00024670	0.16732	0.011172	1.3471	0.74233	49.185	68.908	5.6810	0.75472	1.0718	165.95	35.295	4.6976e-06	0.0065718
67.660	0.027000	848.47	0.0011786	-141.72	-141.69	2.5638	1.1452	2.0087	949.36	-0.38889	0.00024549	0.16709	0.011147	1.3672	0.73144	49.251	69.000	5.6777	0.75485	1.0722	166.06	35.186	4.7052e-06	0.0065812
67.762	0.027436	848.04	0.0011792	-141.51	-141.48	2.5668	1.1445	2.0090	948.34	-0.38851	0.00024429	0.16686	0.011123	1.3874	0.72075	49.318	69.093	5.6744	0.75498	1.0725	166.17	35.077	4.7127e-06	0.0065905
67.863	0.027878	847.61	0.0011798	-141.31	-141.28	2.5698	1.1439	2.0092	947.31	-0.38812	0.00024310	0.16663	0.011099	1.4080	0.71025	49.385	69.186	5.6711	0.75511	1.0729	166.27	34.969	4.7202e-06	0.0065998
67.965	0.028326	847.18	0.0011804	-141.11	-141.07	2.5728	1.1432	2.0094	946.28	-0.38773	0.00024192	0.16640	0.011074	1.4287	0.69993	49.452	69.278	5.6678	0.75524	1.0733	166.38	34.862	4.7278e-06	0.0066092
68.067	0.028779	846.75	0.0011810	-140.90	-140.87	2.5758	1.1425	2.0097	945.25	-0.38734	0.00024074	0.16617	0.011050	1.4497	0.68980	49.518	69.370	5.6645	0.75537	1.0737	166.48	34.755	4.7353e-06	0.0066185
68.168	0.029238	846.32	0.0011816	-140.70	-140.66	2.5788	1.1418	2.0099	944.22	-0.38694	0.00023958	0.16594	0.011026	1.4709	0.67985	49.585	69.462	5.6613	0.75550	1.0741	166.59	34.649	4.7429e-06	0.0066278
68.270	0.029702	845.89	0.0011822	-140.49	-140.46	2.5818	1.1411	2.0101	943.20	-0.38654	0.00023842	0.16572	0.011001	1.4924	0.67007	49.651	69.554	5.6580	0.75564	1.0745	166.69	34.543	4.7504e-06	0.0066372
68.372	0.030173	845.46	0.0011828	-140.29	-140.25	2.5848	1.1404	2.0104	942.17	-0.38615	0.00023727	0.16549	0.010977	1.5141	0.66047	49.718	69.646	5.6548	0.75577	1.0749	166.79	34.439	4.7580e-06	0.0066465
68.473	0.030649	845.03	0.0011834	-140.09	-140.05	2.5878	1.1398	2.0106	941.14	-0.38575	0.00023613	0.16526	0.010953	1.5360	0.65103	49.784	69.738	5.6516	0.75591	1.0752	166.90	34.334	4.7655e-06	0.0066559
68.575	0.031132	844.60	0.0011840	-139.88	-139.84	2.5908	1.1391	2.0109	940.12	-0.38534	0.00023499	0.16503	0.010928	1.5582	0.64176	49.850	69.829	5.6484	0.75604	1.0756	167.00	34.231	4.7731e-06	0.0066652
68.677	0.031620	844.16	0.0011846	-139.68	-139.64	2.5938	1.1384	2.0111	939.09	-0.38494	0.00023386	0.16480	0.010904	1.5807	0.63265	49.916	69.921	5.6452	0.75618	1.0761	167.11	34.127	4.7807e-06	0.0066746
68.778	0.032114	843.73	0.0011852	-139.47	-139.43	2.5967	1.1377	2.0113	938.06	-0.38453	0.00023275	0.16457	0.010880	1.6033	0.62370	49.982	70.012	5.6420	0.75632	1.0765	167.21	34.025	4.7882e-06	0.0066840
68.880	0.032614	843.30	0.0011858	-139.27	-139.23	2.5997	1.1371	2.0116	937.04	-0.38412	0.00023163	0.16435	0.010856	1.6263	0.61490	50.048	70.103	5.6388	0.75646	1.0769	167.31	33.923	4.7958e-06	0.0066933
68.982	0.033121	842.87	0.0011864	-139.06	-139.02	2.6027	1.1364	2.0118	936.01	-0.38371	0.00023053	0.16412	0.010831	1.6495	0.60626	50.114	70.194	5.6356	0.75660	1.0773	167.41	33.821	4.8033e-06	0.0067027
69.083	0.033634	842.43	0.0011870	-138.86	-138.82	2.6056	1.1357	2.0121	934.99	-0.38330	0.00022943	0.16389	0.010807	1.6729	0.59777	50.180	70.285	5.6325	0.75674	1.0777	167.52	33.721	4.8109e-06	0.0067121
69.185	0.034153	842.00	0.0011876	-138.66	-138.61	2.6086	1.1350	2.0124	933.96	-0.38288	0.00022835	0.16366	0.010783	1.6966	0.58942	50.245	70.376	5.6293	0.75688	1.0781	167.62	33.620	4.8185e-06	0.0067214
69.287	0.034678	841.57	0.0011883	-138.45	-138.41	2.6115	1.1344	2.0126	932.93	-0.38246	0.00022726	0.16343	0.010759	1.7205	0.58121	50.311	70.466	5.6262	0.75702	1.0785	167.72	33.521	4.8260e-06	0.0067308
69.388	0.035210	841.13	0.0011889	-138.25	-138.20	2.6145	1.1337	2.0129	931.91	-0.38204	0.00022619	0.16321	0.010735	1.7448	0.57315	50.377	70.557	5.6231	0.75717	1.0790	167.82	33.422	4.8336e-06	0.0067402
69.490	0.035748	840.70	0.0011895	-138.04	-138.00	2.6174	1.1330	2.0131	930.88	-0.38162	0.00022512	0.16298	0.010710	1.7692	0.56522	50.442	70.647	5.6200	0.75731	1.0794	167.92	33.323	4.8412e-06	0.0067496
69.592	0.036292	840.26	0.0011901	-137.84	-137.79	2.6204	1.1323	2.0134	929.86	-0.38120	0.00022407	0.16275	0.010686	1.7940	0.55743	50.507	70.737	5.6169	0.75746	1.0798	168.02	33.225	4.8488e-06	0.0067590
69.693	0.036843	839.83	0.0011907	-137.63	-137.59	2.6233	1.1317	2.0137	928.83	-0.38077	0.00022301	0.16253	0.010662	1.8190	0.54976	50.572	70.827	5.6138	0.75760	1.0803	168.12	33.127	4.8564e-06	0.0067684
69.795	0.037400	839.39	0.0011913	-137.43	-137.38	2.6262	1.1310	2.0139	927.81	-0.38034	0.00022197	0.16230	0.010638	1.8442	0.54223	50.638	70.917	5.6107	0.75775	1.0807	168.22	33.031	4.8639e-06	0.0067778
69.897	0.037965	838.96	0.0011920	-137.22	-137.18	2.6292	1.1303	2.0142	926.78	-0.37991	0.00022093	0.16207	0.010614	1.8698	0.53483	50.703	71.007	5.6076	0.75790	1.0811	168.32	32.934	4.8715e-06	0.0067872
69.998	0.038535	838.52	0.0011926	-137.02	-136.97	2.6321	1.1297	2.0145	925.76	-0.37948	0.00021990	0.16185	0.010590	1.8956	0.52755	50.768	71.097	5.6046	0.75805	1.0816	168.42	32.838	4.8791e-06	0.0067966
70.100	0.039113	838.09	0.0011932	-136.82	-136.77	2.6350	1.1290	2.0148	924.73	-0.37904	0.00021888	0.16162	0.010566	1.9216	0.52039	50.832	71.186	5.6015	0.75820	1.0820	168.52	32.743	4.8867e-06	0.0068060
70.202	0.039697	837.65	0.0011938	-136.61	-136.56	2.6379	1.1283	2.0150	923.71	-0.37860	0.00021786	0.16139	0.010541	1.9480	0.51335	50.897	71.276	5.5985	0.75835	1.0825	168.62	32.648	4.8943e-06	0.0068155
70.303	0.040288	837.21	0.0011944	-136.41	-136.36	2.6408	1.1277	2.0153	922.68	-0.37816	0.00021685	0.16117	0.010517	1.9746	0.50642	50.962	71.365	5.5955	0.75850	1.0829	168.72	32.554	4.9019e-06	0.0068249
70.405	0.040886	836.78	0.0011951	-136.20	-136.15	2.6437	1.1270	2.0156	921.66	-0.37772	0.00021585	0.16094	0.010493	2.0015	0.49962	51.026	71.454	5.5925	0.75865	1.0834	168.82	32.460	4.9095e-06	0.0068344
70.507	0.041491	836.34	0.0011957	-136.00	-135.95	2.6466	1.1263	2.0159	920.63	-0.37728	0.00021485	0.16072	0.010469	2.0287	0.49292	51.091	71.543	5.5895	0.75880	1.0839	168.91	32.367	4.9171e-06	0.0068438
70.608	0.042103	835.90	0.0011963	-135.79	-135.74	2.6495	1.1257	2.0162	919.61	-0.37683	0.00021386	0.16049	0.010445	2.0562	0.48634	51.155	71.632	5.5865	0.75896	1.0843	169.01	32.274	4.9247e-06	0.0068533
70.710	0.042722	835.46	0.0011969	-135.59	-135.54	2.6524	1.1250	2.0165	918.58	-0.37638	0.00021288	0.16026	0.010421	2.0839	0.47986	51.219	71.720	5.5835	0.75911	1.0848	169.11	32.182	4.9323e-06	0.0068627
70.812	0.043348	835.02	0.0011976	-135.38	-135.33	2.6553	1.1244	2.0168	917.56	-0.37593	0.00021190	0.16004	0.010397	2.1120	0.47349	51.284	71.809	5.5805	0.75927	1.0853	169.21	32.090	4.9399e-06	0.0068722
70.913	0.043982	834.58	0.0011982	-135.18	-135.13	2.6582	1.1237	2.0171	916.53	-0.37547	0.00021093	0.15981	0.010373	2.1403	0.46722	51.348	71.897	5.5776	0.75943	1.0858	169.30	31.999	4.9475e-06	0.0068817
71.015	0.044622	834.15	0.0011988	-134.97	-134.92	2.6611	1.1230	2.0174	915.51	-0.37502	0.00020997	0.15959	0.010349	2.1689	0.46106	51.412	71.985	5.5746	0.75958	1.0862	169.40	31.908	4.9551e-06	0.0068912
71.117	0.045270	833.71	0.0011995	-134.77	-134.71	2.6640	1.1224	2.0177	914.48	-0.37456	0.00020901	0.15936	0.010325	2.1978	0.45499	51.476	72.073	5.5717	0.75974	1.0867	169.50	31.818	4.9627e-06	0.0069006
71.218	0.045925	833.27	0.0012001	-134.56	-134.51	2.6669	1.1217	2.0180	913.46	-0.37410	0.00020806	0.15914	0.010301	2.2270	0.44903	51.539	72.161	5.5688	0.75990	1.0872	169.59	31.728	4.9703e-06	0.0069101
71.320	0.046588	832.83	0.0012007	-134.36	-134.30	2.6697	1.1211	2.0183	912.43	-0.37363	0.00020711	0.15891	0.010277	2.2565	0.44316	51.603	72.249	5.5659	0.76006	1.0877	169.69	31.639	4.9779e-06	0.0069196
71.422	0.047257	832.39	0.0012014	-134.15	-134.10	2.6726	1.1204	2.0186	911.41	-0.37317	0.00020617	0.15869	0.010253	2.2863	0.43738	51.667	72.336	5.5630	0.76022	1.0882	169.78	31.550	4.9856e-06	0.0069292
71.523	0.047935	831.95	0.0012020	-133.95	-133.89	2.6755	1.1198	2.0189	910.38	-0.37270	0.00020524	0.15847	0.010229	2.3164	0.43170	51.730	72.424	5.5601	0.76038	1.0887	169.88	31.462	4.9932e-06	0.0069387
71.625	0.048620	831.50	0.0012026	-133.74	-133.69	2.6783	1.1191	2.0192	909.36	-0.37223	0.00020432	0.15824	0.010205	2.3468	0.42611	51.794	72.511	5.5572	0.76055	1.0892	169.97	31.374	5.0008e-06	0.0069482
71.727	0.049313	831.06	0.0012033	-133.54	-133.48	2.6812	1.1185	2.0195	908.33	-0.37175	0.00020340	0.15802	0.010181	2.3775	0.42061	51.857	72.598	5.5543	0.76071	1.0897	170.07	31.287	5.0084e-06	0.0069578
71.828	0.050013	830.62	0.0012039	-133.33	-133.27	2.6841	1.1178	2.0198	907.31	-0.37127	0.00020248	0.15779	0.010157	2.4085	0.41519	51.920	72.685	5.5514	0.76088	1.0902	170.16	31.200	5.0161e-06	0.0069673
71.930	0.050721	830.18	0.0012046	-133.13	-133.07	2.6869	1.1172	2.0201	906.28	-0.37080	0.00020157	0.15757	0.010133	2.4398	0.40987	51.983	72.772	5.5486	0.76104	1.0907	170.26	31.113	5.0237e-06	0.0069769
72.032	0.051437	829.74	0.0012052	-132.92	-132.86	2.6898	1.1165	2.0205	905.26	-0.37031	0.00020067	0.15735	0.010110	2.4714	0.40462	52.046	72.859	5.5457	0.76121	1.0912	170.35	31.028	5.0313e-06	0.0069864
72.133	0.052160	829.29	0.0012058	-132.72	-132.66	2.6926	1.1159	2.0208	904.23	-0.36983	0.00019978	0.15712	0.010086	2.5034	0.39946	52.109	72.945	5.5429	0.76138	1.0918	170.44	30.942	5.0390e-06	0.0069960
72.235	0.052892	828.85	0.0012065	-132.51	-132.45	2.6954	1.1152	2.0211	903.21	-0.36934	0.00019889	0.15690	0.010062	2.5356	0.39438	52.172	73.031	5.5401	0.76154	1.0923	170.54	30.857	5.0466e-06	0.0070056
72.337	0.053632	828.41	0.0012071	-132.31	-132.24	2.6983	1.1146	2.0214	902.18	-0.36885	0.00019800	0.15668	0.010038	2.5682	0.38938	52.235	73.118	5.5373	0.76171	1.0928	170.63	30.772	5.0543e-06	0.0070152
72.438	0.054379	827.96	0.0012078	-132.10	-132.04	2.7011	1.1139	2.0218	901.16	-0.36836	0.00019712	0.15645	0.010014	2.6011	0.38446	52.297	73.204	5.5345	0.76188	1.0933	170.72	30.688	5.0619e-06	0.0070248
72.540	0.055135	827.52	0.0012084	-131.90	-131.83	2.7040	1.1133	2.0221	900.13	-0.36787	0.00019625	0.15623	0.0099902	2.6343	0.37961	52.360	73.290	5.5317	0.76206	1.0939	170.81	30.605	5.0696e-06	0.0070344
72.642	0.055899	827.08	0.0012091	-131.69	-131.63	2.7068	1.1127	2.0225	899.11	-0.36737	0.00019538	0.15601	0.0099664	2.6678	0.37484	52.422	73.375	5.5289	0.76223	1.0944	170.91	30.521	5.0772e-06	0.0070440
72.743	0.056671	826.63	0.0012097	-131.49	-131.42	2.7096	1.1120	2.0228	898.08	-0.36687	0.00019452	0.15578	0.0099426	2.7016	0.37015	52.484	73.461	5.5261	0.76240	1.0950	171.00	30.439	5.0849e-06	0.0070537
72.845	0.057451	826.19	0.0012104	-131.28	-131.21	2.7124	1.1114	2.0231	897.05	-0.36637	0.00019366	0.15556	0.0099188	2.7358	0.36553	52.546	73.546	5.5233	0.76257	1.0955	171.09	30.356	5.0925e-06	0.0070633
72.947	0.058239	825.74	0.0012110	-131.08	-131.01	2.7152	1.1107	2.0235	896.03	-0.36586	0.00019281	0.15534	0.0098950	2.7703	0.36097	52.608	73.631	5.5206	0.76275	1.0960	171.18	30.274	5.1002e-06	0.0070730
73.048	0.059036	825.30	0.0012117	-130.87	-130.80	2.7181	1.1101	2.0238	895.00	-0.36535	0.00019197	0.15512	0.0098712	2.8051	0.35649	52.670	73.716	5.5178	0.76293	1.0966	171.27	30.193	5.1079e-06	0.0070826
73.150	0.059842	824.85	0.0012123	-130.67	-130.59	2.7209	1.1095	2.0242	893.98	-0.36484	0.00019113	0.15489	0.0098474	2.8403	0.35208	52.732	73.801	5.5151	0.76310	1.0972	171.36	30.112	5.1155e-06	0.0070923
73.252	0.060656	824.40	0.0012130	-130.46	-130.39	2.7237	1.1088	2.0245	892.95	-0.36433	0.00019029	0.15467	0.0098237	2.8758	0.34774	52.794	73.886	5.5123	0.76328	1.0977	171.45	30.031	5.1232e-06	0.0071020
73.353	0.061478	823.96	0.0012137	-130.26	-130.18	2.7265	1.1082	2.0249	891.93	-0.36381	0.00018947	0.15445	0.0097999	2.9116	0.34346	52.855	73.971	5.5096	0.76346	1.0983	171.54	29.951	5.1309e-06	0.0071117
73.455	0.062309	823.51	0.0012143	-130.05	-129.97	2.7293	1.1076	2.0253	890.90	-0.36330	0.00018864	0.15423	0.0097762	2.9477	0.33924	52.917	74.055	5.5069	0.76364	1.0989	171.63	29.871	5.1386e-06	0.0071214
73.557	0.063149	823.06	0.0012150	-129.85	-129.77	2.7321	1.1069	2.0256	889.87	-0.36277	0.00018782	0.15400	0.0097525	2.9843	0.33509	52.978	74.139	5.5042	0.76382	1.0994	171.72	29.792	5.1462e-06	0.0071312
73.658	0.063997	822.61	0.0012156	-129.64	-129.56	2.7349	1.1063	2.0260	888.85	-0.36225	0.00018701	0.15378	0.0097287	3.0211	0.33101	53.040	74.223	5.5015	0.76400	1.1000	171.81	29.713	5.1539e-06	0.0071409
73.760	0.064855	822.17	0.0012163	-129.43	-129.36	2.7377	1.1057	2.0264	887.82	-0.36172	0.00018620	0.15356	0.0097050	3.0583	0.32698	53.101	74.307	5.4988	0.76418	1.1006	171.90	29.634	5.1616e-06	0.0071506
